energy,intensity
9.419,9.8e-05
10.73,0.000188
10.838,0.000188
11.712,4e-05
12.48,0.00165
12.692,8.1e-05
12.966,2.5e-05
13.023,0.00142
13.211,8.7e-05
13.259,0.00037
13.393,5.3e-06
13.408,5.2e-05
14.773,1.04e-05
15.247,0.00031
15.552,0.00031
15.583,2.14e-05
15.685,4.5e-05
15.701,3.7e-07
15.709,2.55e-05
16.283,9.5e-06
16.389,5.8e-07
74.815,0.0036
77.108,0.0061
87.388,0.00209
89.784,0.00064
