energy,intensity
9.419,0.098
10.73,0.187
10.838,0.187
11.712,0.0744
12.48,1.64
12.692,1.83
12.966,0.025
13.023,2.68
13.211,1.97
13.259,0.373
13.393,0.0052
13.408,0.0522
14.773,0.0196
15.247,0.582
15.552,0.582
15.583,0.485
15.685,0.0841
15.701,0.0007
15.709,0.578
16.283,0.215
16.389,0.0132
