energy,intensity
9.419,0.26455500000000004
10.73,0.505849
10.838,0.505849
11.712,0.1023359
12.48,4.43896
12.692,0.2232528
12.966,0.0666938
13.023,3.67911
13.211,0.24049379999999998
13.259,1.010758
13.393,0.01414482
13.408,0.14138810000000002
14.773,0.02690655
15.247,0.798076
15.552,0.798076
15.583,0.0591364
15.685,0.11502670000000001
15.701,0.00092535
15.709,0.070535
16.283,0.0262245
16.389,0.001610992
74.815,10.02558
77.108,16.77997
87.388,5.74823
89.784,1.759002
