energy,intensity
9.655,0.017743000000000002
11.014,0.033599
11.129,0.033599
12.083,0.0090773
12.822,0.29269999999999996
13.085,0.010248000000000002
13.326,0.0044911
13.442,0.32767999999999997
13.635,0.066867
13.636,0.0108592
13.777,0.0009796100000000001
13.796,0.0099083
15.25,0.00240353
15.741,0.072355
16.063,0.072355
16.079,0.0027480700000000005
16.203,0.01092
16.213,0.00323825
16.224,8.1028e-05
16.812,0.00123618
16.928,0.000107482
76.862,0.54539
79.29,0.90637
89.837,0.31799
92.315,0.097461
